SpectraSuite Datei
++++++++++++++++++++++++++++++++++++
Datum: Mon Nov 11 16:32:59 CET 2019
Benutzer: user
Dark-Spektrum vorhanden: Ja
Referenz-Spektrum vorhanden: Nein
Zahl der probierten Teilspektren: 1
Spektrometer: USB4F04607
Integrationszeit (usec): 4000 (USB4F04607)
Spektren Durchschnitt berechnet: 20 (USB4F04607)
Boxcar Glättung: 0 (USB4F04607)
Dunkelstromkorrektur: Nein (USB4F04607)
Puls/Lampe aktiviert: Nein (USB4F04607)
Correct for Detector Non-linearity: Nein (USB4F04607)
Streulichtkorrektur: Nein (USB4F04607)
Anzahl Pixel in verarbeitetem Spektrum: 3648
>>>>>Begin Processed Spectral Data<<<<<
177,66	12,08
177,88	12,08
178,10	12,08
178,32	-9,93
178,53	2,25
178,75	-16,28
178,97	-4,61
179,19	1,23
179,40	17,31
179,62	-10,75
179,84	-11,16
180,05	6,35
180,27	1,13
180,49	9,63
180,71	0,10
180,92	18,94
181,14	-27,55
181,36	2,76
181,58	2,36
181,79	11,57
182,01	-25,39
182,23	-3,58
182,44	9,42
182,66	6,96
182,88	-1,23
183,10	-26,62
183,31	13,62
183,53	17,41
183,75	4,10
183,96	-12,80
184,18	-1,33
184,40	-17,10
184,62	-11,16
184,83	-19,25
185,05	-9,11
185,27	11,16
185,48	-1,95
185,70	8,09
185,92	-11,16
186,14	-1,13
186,35	-0,92
186,57	-10,14
186,79	6,76
187,00	-13,21
187,22	2,05
187,44	-2,87
187,66	-5,53
187,87	-8,81
188,09	23,76
188,31	9,32
188,52	-15,67
188,74	-25,80
188,96	-9,32
189,17	-8,91
189,39	10,96
189,61	2,97
189,82	1,95
190,04	-16,08
190,26	15,05
190,48	-3,28
190,69	19,66
190,91	9,63
191,13	-15,56
191,34	4,51
191,56	-17,61
191,78	12,29
191,99	4,81
192,21	0,92
192,43	-7,37
192,64	0,92
192,86	5,12
193,08	9,52
193,29	2,66
193,51	0,41
193,73	1,74
193,94	11,67
194,16	-5,94
194,38	-7,78
194,60	3,79
194,81	-11,26
195,03	2,66
195,25	-4,30
195,46	-14,13
195,68	-20,89
195,90	-6,96
196,11	5,84
196,33	2,05
196,55	-2,56
196,76	9,01
196,98	2,25
197,20	-18,74
197,41	-0,41
197,63	8,70
197,85	-26,52
198,06	13,62
198,28	11,16
198,50	22,63
198,71	-10,14
198,93	-3,99
199,14	3,79
199,36	-6,76
199,58	11,16
199,79	6,86
200,01	4,71
200,23	12,70
200,44	-8,50
200,66	-11,37
200,88	15,36
201,09	-24,78
201,31	13,31
201,53	-5,02
201,74	-17,10
201,96	-4,40
202,18	5,32
202,39	5,02
202,61	8,91
202,83	0,82
203,04	-11,67
203,26	3,48
203,47	-2,97
203,69	18,94
203,91	-2,97
204,12	7,07
204,34	-1,33
204,56	-1,02
204,77	6,55
204,99	2,97
205,21	11,57
205,42	-11,26
205,64	6,55
205,85	1,54
206,07	0,00
206,29	30,82
206,50	-0,82
206,72	7,58
206,94	-1,43
207,15	11,67
207,37	4,92
207,58	16,28
207,80	1,54
208,02	-1,54
208,23	-2,05
208,45	-34,71
208,67	3,79
208,88	-6,35
209,10	-2,46
209,31	-1,74
209,53	6,66
209,75	-3,17
209,96	0,10
210,18	-3,69
210,40	-4,10
210,61	-3,79
210,83	-10,65
211,04	2,15
211,26	8,09
211,48	-10,04
211,69	5,32
211,91	13,82
212,12	-21,20
212,34	12,49
212,56	8,40
212,77	18,23
212,99	2,36
213,20	-5,53
213,42	-5,73
213,64	6,96
213,85	23,86
214,07	-5,43
214,28	0,61
214,50	-15,05
214,72	0,41
214,93	-11,47
215,15	29,29
215,36	-12,19
215,58	-12,08
215,80	21,40
216,01	-9,32
216,23	0,72
216,44	-7,68
216,66	12,80
216,88	-0,20
217,09	-3,28
217,31	5,12
217,52	10,55
217,74	-8,91
217,95	15,36
218,17	-1,84
218,39	2,76
218,60	1,13
218,82	-1,95
219,03	-3,07
219,25	-8,70
219,47	7,07
219,68	-12,39
219,90	1,74
220,11	3,28
220,33	9,42
220,54	-2,05
220,76	0,51
220,98	14,44
221,19	6,25
221,41	3,58
221,62	9,83
221,84	9,52
222,05	-16,49
222,27	3,69
222,48	-12,60
222,70	17,92
222,92	5,53
223,13	22,83
223,35	10,14
223,56	-8,70
223,78	10,34
223,99	19,25
224,21	-0,61
224,43	1,02
224,64	9,22
224,86	16,49
225,07	-10,65
225,29	-3,58
225,50	0,82
225,72	2,15
225,93	-4,20
226,15	-8,19
226,37	-0,61
226,58	14,44
226,80	2,76
227,01	3,17
227,23	3,58
227,44	-7,48
227,66	0,41
227,87	-4,71
228,09	0,51
228,30	-1,13
228,52	-5,43
228,74	-1,74
228,95	-11,26
229,17	6,25
229,38	10,14
229,60	8,70
229,81	13,11
230,03	4,61
230,24	-7,88
230,46	-2,87
230,67	13,72
230,89	0,92
231,10	6,14
231,32	13,72
231,53	3,99
231,75	-2,56
231,97	-11,26
232,18	-5,84
232,40	15,36
232,61	6,96
232,83	2,25
233,04	-26,32
233,26	3,89
233,47	11,26
233,69	14,54
233,90	5,22
234,12	-12,08
234,33	-10,85
234,55	-3,38
234,76	-4,30
234,98	14,95
235,19	-7,88
235,41	-10,34
235,62	23,96
235,84	-1,13
236,05	-3,58
236,27	8,70
236,48	1,43
236,70	20,89
236,91	-5,32
237,13	-5,63
237,34	9,83
237,56	-22,53
237,77	-2,76
237,99	6,96
238,20	-1,74
238,42	-17,10
238,63	-3,17
238,85	-4,71
239,06	5,22
239,28	21,30
239,49	-1,95
239,71	-14,34
239,92	2,25
240,14	10,75
240,35	1,95
240,57	4,81
240,78	14,64
241,00	-14,64
241,21	-0,31
241,43	6,14
241,64	-10,55
241,86	3,99
242,07	-8,19
242,29	7,37
242,50	9,63
242,72	-6,25
242,93	-24,58
243,15	3,28
243,36	4,40
243,58	1,43
243,79	5,22
244,01	1,95
244,22	-9,32
244,44	-4,40
244,65	9,22
244,87	-12,60
245,08	8,60
245,29	18,23
245,51	11,98
245,72	1,64
245,94	-15,97
246,15	-4,20
246,37	17,20
246,58	-3,48
246,80	-15,46
247,01	15,36
247,23	4,20
247,44	23,14
247,66	-5,22
247,87	3,07
248,09	-0,92
248,30	19,15
248,51	1,02
248,73	10,04
248,94	-3,79
249,16	-6,25
249,37	10,14
249,59	23,86
249,80	9,22
250,02	9,73
250,23	-17,82
250,45	16,59
250,66	5,63
250,87	2,25
251,09	-2,87
251,30	-21,20
251,52	4,92
251,73	-23,65
251,95	4,92
252,16	4,10
252,38	-10,96
252,59	-11,57
252,80	0,10
253,02	12,19
253,23	-4,40
253,45	-18,64
253,66	-4,92
253,88	-9,83
254,09	-16,38
254,30	-3,58
254,52	6,66
254,73	-7,88
254,95	-8,60
255,16	4,40
255,38	-5,53
255,59	11,88
255,80	6,35
256,02	24,78
256,23	3,99
256,45	-8,40
256,66	-8,29
256,88	8,19
257,09	-7,88
257,30	-8,50
257,52	-16,28
257,73	-4,51
257,95	15,36
258,16	-8,19
258,38	14,75
258,59	8,09
258,80	-30,92
259,02	-17,20
259,23	17,41
259,45	11,26
259,66	3,28
259,87	17,61
260,09	1,95
260,30	1,23
260,52	2,56
260,73	-6,04
260,94	-1,84
261,16	-10,24
261,37	-0,10
261,59	3,99
261,80	25,09
262,01	-3,48
262,23	-14,34
262,44	-0,92
262,66	20,79
262,87	-4,92
263,08	-11,67
263,30	-0,51
263,51	-1,74
263,73	-9,32
263,94	-6,76
264,15	-1,54
264,37	9,42
264,58	9,73
264,80	20,17
265,01	14,54
265,22	3,17
265,44	21,71
265,65	-11,26
265,86	7,37
266,08	-16,49
266,29	4,40
266,51	-20,79
266,72	-2,36
266,93	4,71
267,15	-13,41
267,36	9,11
267,58	-5,12
267,79	0,10
268,00	26,11
268,22	9,63
268,43	-13,62
268,64	18,43
268,86	-16,59
269,07	6,86
269,28	11,67
269,50	15,36
269,71	-12,19
269,93	-15,15
270,14	0,51
270,35	-3,38
270,57	10,44
270,78	-2,25
270,99	-10,85
271,21	-7,58
271,42	-0,51
271,63	-3,48
271,85	-17,10
272,06	-4,20
272,28	-3,58
272,49	8,91
272,70	13,93
272,92	7,37
273,13	-5,94
273,34	-4,92
273,56	0,82
273,77	-14,54
273,98	1,13
274,20	-14,34
274,41	-2,76
274,62	-5,43
274,84	-4,10
275,05	-0,82
275,26	-9,32
275,48	22,53
275,69	-8,70
275,90	0,92
276,12	0,61
276,33	-9,83
276,54	-0,31
276,76	-7,27
276,97	1,02
277,18	8,50
277,40	10,14
277,61	-25,60
277,82	6,45
278,04	-12,80
278,25	3,89
278,46	23,14
278,68	-3,58
278,89	-4,20
279,10	14,03
279,32	-17,82
279,53	0,72
279,74	-2,15
279,96	-0,31
280,17	9,73
280,38	-5,22
280,60	-2,76
280,81	-16,08
281,02	-2,97
281,24	8,19
281,45	0,10
281,66	4,20
281,88	-16,38
282,09	-25,60
282,30	5,84
282,52	10,34
282,73	14,34
282,94	20,38
283,15	-7,58
283,37	-22,53
283,58	4,92
283,79	-6,45
284,01	2,97
284,22	-14,54
284,43	-9,52
284,65	-11,78
284,86	13,93
285,07	0,82
285,28	8,09
285,50	1,54
285,71	7,27
285,92	-20,38
286,14	-3,89
286,35	15,87
286,56	-30,21
286,77	-6,45
286,99	-0,51
287,20	3,48
287,41	-12,60
287,63	-11,88
287,84	17,41
288,05	17,61
288,27	-12,60
288,48	22,83
288,69	-6,86
288,90	-7,88
289,12	-8,70
289,33	7,68
289,54	-4,40
289,75	-5,43
289,97	4,30
290,18	8,81
290,39	-17,00
290,61	-9,93
290,82	5,22
291,03	4,92
291,24	-20,48
291,46	6,45
291,67	-5,32
291,88	-10,24
292,09	6,96
292,31	-2,46
292,52	6,86
292,73	0,82
292,95	-10,44
293,16	-6,25
293,37	5,84
293,58	2,66
293,80	-16,49
294,01	4,71
294,22	-11,06
294,43	-15,05
294,65	-1,74
294,86	10,44
295,07	20,68
295,28	4,40
295,50	-11,78
295,71	22,12
295,92	-3,17
296,13	1,84
296,35	-8,91
296,56	-10,04
296,77	4,92
296,98	5,32
297,20	-5,53
297,41	8,70
297,62	4,81
297,83	-6,25
298,05	5,02
298,26	13,41
298,47	8,50
298,68	3,89
298,89	-15,87
299,11	-24,37
299,32	0,51
299,53	2,56
299,74	-11,37
299,96	5,22
300,17	16,59
300,38	1,74
300,59	11,88
300,81	9,01
301,02	16,59
301,23	-3,58
301,44	21,81
301,65	25,50
301,87	-10,44
302,08	4,61
302,29	-8,70
302,50	-16,69
302,72	-3,28
302,93	-7,27
303,14	-1,54
303,35	1,64
303,56	8,40
303,78	-16,49
303,99	9,22
304,20	13,21
304,41	-16,59
304,62	-8,81
304,84	11,47
305,05	-3,48
305,26	12,80
305,47	-4,40
305,68	8,29
305,90	11,26
306,11	-19,76
306,32	-1,84
306,53	13,21
306,74	-5,53
306,96	7,48
307,17	23,55
307,38	11,47
307,59	-18,94
307,80	-6,86
308,02	1,43
308,23	8,60
308,44	3,48
308,65	-1,13
308,86	-8,29
309,08	-9,93
309,29	-17,92
309,50	-14,23
309,71	-21,81
309,92	25,09
310,13	-5,43
310,35	-16,59
310,56	12,39
310,77	-4,71
310,98	14,85
311,19	-19,76
311,41	-18,12
311,62	1,13
311,83	-7,78
312,04	13,82
312,25	-5,73
312,46	-2,25
312,68	-2,76
312,89	11,98
313,10	-7,68
313,31	-8,81
313,52	-11,16
313,73	8,70
313,95	-2,76
314,16	4,92
314,37	5,02
314,58	-0,31
314,79	14,54
315,00	-1,84
315,22	14,54
315,43	-15,36
315,64	-9,63
315,85	0,82
316,06	-7,99
316,27	-17,41
316,48	11,78
316,70	-23,65
316,91	2,66
317,12	-1,02
317,33	-18,43
317,54	-23,04
317,75	12,08
317,97	-3,38
318,18	-2,46
318,39	5,63
318,60	3,89
318,81	1,84
319,02	7,58
319,23	16,08
319,45	10,96
319,66	11,67
319,87	7,68
320,08	-12,90
320,29	-4,92
320,50	8,29
320,71	10,24
320,92	-0,10
321,14	-17,10
321,35	-24,78
321,56	9,22
321,77	1,23
321,98	4,92
322,19	14,03
322,40	-5,94
322,61	0,10
322,83	-1,84
323,04	14,23
323,25	29,39
323,46	-14,34
323,67	-6,25
323,88	5,02
324,09	27,14
324,30	-5,73
324,52	22,02
324,73	-16,59
324,94	-10,34
325,15	-3,99
325,36	-5,43
325,57	-10,65
325,78	13,93
325,99	25,70
326,20	6,86
326,41	3,58
326,63	-19,25
326,84	17,20
327,05	30,82
327,26	14,85
327,47	61,13
327,68	83,35
327,89	91,03
328,10	85,81
328,31	102,71
328,52	68,20
328,74	41,06
328,95	44,95
329,16	21,09
329,37	-24,17
329,58	-2,46
329,79	5,84
330,00	-10,24
330,21	16,90
330,42	-19,56
330,63	7,78
330,84	9,01
331,06	1,43
331,27	-8,81
331,48	-10,14
331,69	30,51
331,90	-4,81
332,11	-8,60
332,32	-5,73
332,53	-4,61
332,74	-22,22
332,95	12,60
333,16	-24,58
333,37	-3,48
333,58	-13,52
333,79	-9,01
334,01	-3,58
334,22	4,51
334,43	8,81
334,64	24,99
334,85	22,43
335,06	21,30
335,27	-12,29
335,48	4,81
335,69	7,68
335,90	2,66
336,11	-5,53
336,32	-13,11
336,53	-0,61
336,74	-1,43
336,95	3,38
337,16	39,94
337,37	-15,87
337,59	-8,91
337,80	-1,84
338,01	20,68
338,22	-22,32
338,43	7,58
338,64	-4,81
338,85	-32,67
339,06	-2,87
339,27	-2,05
339,48	-2,25
339,69	6,14
339,90	16,38
340,11	-17,71
340,32	10,24
340,53	-11,26
340,74	-16,28
340,95	5,22
341,16	-19,87
341,37	10,96
341,58	-9,93
341,79	10,14
342,00	-5,63
342,21	12,70
342,42	-3,89
342,63	2,76
342,84	19,15
343,05	8,70
343,26	-5,02
343,48	-5,84
343,69	-6,45
343,90	7,07
344,11	-3,58
344,32	-3,28
344,53	-12,60
344,74	7,99
344,95	-16,18
345,16	5,02
345,37	3,58
345,58	-1,54
345,79	11,47
346,00	7,88
346,21	17,41
346,42	-10,96
346,63	3,79
346,84	17,00
347,05	-1,23
347,26	9,73
347,47	21,81
347,68	-0,31
347,89	-3,07
348,10	20,89
348,31	0,00
348,52	-22,32
348,73	3,28
348,94	-12,39
349,15	1,43
349,36	-13,72
349,57	10,44
349,78	5,43
349,99	-16,49
350,20	0,72
350,41	0,20
350,62	-5,12
350,83	-7,68
351,04	-2,05
351,25	17,51
351,45	-8,19
351,66	2,05
351,87	-13,52
352,08	9,83
352,29	-0,61
352,50	7,99
352,71	-4,40
352,92	5,12
353,13	-14,44
353,34	4,71
353,55	-3,17
353,76	-11,06
353,97	4,61
354,18	8,91
354,39	6,55
354,60	-7,88
354,81	3,99
355,02	7,07
355,23	-2,56
355,44	4,81
355,65	27,34
355,86	-9,42
356,07	5,84
356,28	-2,36
356,49	-25,39
356,70	-1,02
356,91	14,03
357,12	-4,30
357,32	2,76
357,53	13,00
357,74	-7,78
357,95	-9,52
358,16	10,96
358,37	-6,04
358,58	7,17
358,79	5,84
359,00	14,85
359,21	-11,06
359,42	-1,74
359,63	0,72
359,84	4,10
360,05	-8,91
360,26	6,66
360,47	10,55
360,68	9,93
360,88	-23,24
361,09	-11,06
361,30	12,19
361,51	-11,67
361,72	-3,99
361,93	-9,01
362,14	2,66
362,35	-6,66
362,56	1,23
362,77	14,75
362,98	7,37
363,19	-0,10
363,40	3,69
363,60	0,41
363,81	3,07
364,02	-13,00
364,23	-16,79
364,44	3,28
364,65	-24,37
364,86	5,94
365,07	12,80
365,28	-2,15
365,49	2,87
365,70	-4,51
365,91	-3,79
366,11	-8,70
366,32	-3,58
366,53	-4,92
366,74	1,13
366,95	0,92
367,16	-9,52
367,37	5,73
367,58	28,16
367,79	-4,30
368,00	2,97
368,20	28,47
368,41	11,06
368,62	-1,43
368,83	5,94
369,04	0,51
369,25	-2,87
369,46	5,84
369,67	-1,23
369,88	-1,33
370,08	11,88
370,29	-19,87
370,50	0,31
370,71	0,00
370,92	9,83
371,13	19,15
371,34	13,00
371,55	-22,73
371,75	-1,43
371,96	-13,82
372,17	9,22
372,38	-27,03
372,59	13,31
372,80	12,29
373,01	-8,09
373,22	4,10
373,42	-17,20
373,63	11,37
373,84	-14,23
374,05	-19,15
374,26	-9,93
374,47	7,48
374,68	-2,46
374,88	-13,31
375,09	0,72
375,30	-11,67
375,51	-1,74
375,72	17,61
375,93	-14,54
376,14	-0,20
376,34	5,02
376,55	-13,21
376,76	6,66
376,97	19,35
377,18	7,78
377,39	-14,54
377,59	-2,97
377,80	-5,73
378,01	9,63
378,22	-2,46
378,43	-0,51
378,64	12,70
378,85	-24,68
379,05	-17,71
379,26	13,21
379,47	-16,59
379,68	24,58
379,89	-35,74
380,10	4,40
380,30	-14,34
380,51	14,34
380,72	16,79
380,93	-10,75
381,14	-0,20
381,34	4,81
381,55	-1,74
381,76	26,62
381,97	-27,44
382,18	3,89
382,39	-2,76
382,59	2,46
382,80	-7,48
383,01	3,28
383,22	2,05
383,43	21,40
383,63	-2,25
383,84	11,06
384,05	1,13
384,26	11,16
384,47	4,51
384,68	-8,29
384,88	0,10
385,09	14,13
385,30	25,29
385,51	-8,60
385,72	-3,79
385,92	-10,34
386,13	-8,91
386,34	-5,12
386,55	-3,07
386,76	2,66
386,96	12,60
387,17	19,76
387,38	0,10
387,59	9,01
387,79	-3,79
388,00	-21,91
388,21	20,79
388,42	16,38
388,63	-8,19
388,83	21,91
389,04	-17,20
389,25	1,23
389,46	-2,05
389,67	3,07
389,87	-2,05
390,08	-11,26
390,29	5,53
390,50	-0,31
390,70	13,72
390,91	-4,40
391,12	9,93
391,33	-5,32
391,53	17,20
391,74	-18,84
391,95	20,58
392,16	5,53
392,37	-0,61
392,57	8,19
392,78	-20,17
392,99	-6,04
393,20	-4,61
393,40	4,61
393,61	-6,25
393,82	-0,10
394,03	-4,61
394,23	2,36
394,44	23,45
394,65	4,81
394,86	-6,86
395,06	-4,40
395,27	-11,88
395,48	3,07
395,69	-2,05
395,89	-6,04
396,10	-7,27
396,31	2,36
396,52	0,31
396,72	-1,02
396,93	-6,35
397,14	-0,92
397,35	4,30
397,55	7,48
397,76	3,79
397,97	35,74
398,18	10,44
398,38	11,16
398,59	-11,67
398,80	-16,69
399,00	0,92
399,21	17,00
399,42	-4,71
399,63	-0,10
399,83	-13,11
400,04	1,54
400,25	10,85
400,46	-5,94
400,66	-9,93
400,87	17,00
401,08	-1,84
401,28	5,02
401,49	25,70
401,70	23,04
401,91	1,95
402,11	-16,18
402,32	11,98
402,53	9,11
402,73	1,13
402,94	-6,55
403,15	-2,15
403,35	11,98
403,56	-9,32
403,77	5,94
403,98	1,43
404,18	6,96
404,39	-5,84
404,60	-12,19
404,80	-1,02
405,01	6,14
405,22	-4,51
405,42	14,75
405,63	10,65
405,84	8,50
406,05	-18,12
406,25	-12,60
406,46	5,43
406,67	-2,76
406,87	2,25
407,08	-14,85
407,29	2,97
407,49	-13,11
407,70	6,86
407,91	-7,07
408,11	0,72
408,32	-14,23
408,53	-3,58
408,73	3,07
408,94	5,53
409,15	11,37
409,35	13,93
409,56	-13,11
409,77	4,20
409,97	-7,68
410,18	-6,14
410,39	-9,83
410,59	7,58
410,80	-6,96
411,01	-11,98
411,21	-0,82
411,42	-10,44
411,63	13,11
411,83	5,22
412,04	11,06
412,25	-1,84
412,45	-16,38
412,66	10,55
412,87	1,95
413,07	10,65
413,28	32,46
413,49	-2,36
413,69	-9,73
413,90	-5,22
414,11	-10,96
414,31	-8,29
414,52	3,89
414,72	4,51
414,93	4,10
415,14	8,40
415,34	22,32
415,55	9,52
415,76	-3,89
415,96	9,83
416,17	-8,09
416,38	1,64
416,58	15,05
416,79	11,16
416,99	8,60
417,20	7,07
417,41	8,29
417,61	12,39
417,82	10,04
418,03	-9,52
418,23	6,86
418,44	-7,78
418,64	-19,25
418,85	-9,83
419,06	-5,12
419,26	1,23
419,47	21,40
419,67	-14,13
419,88	12,39
420,09	1,33
420,29	-1,64
420,50	5,73
420,71	-9,42
420,91	-10,14
421,12	-2,66
421,32	8,60
421,53	9,63
421,74	2,15
421,94	2,15
422,15	-18,84
422,35	10,04
422,56	-1,33
422,77	9,73
422,97	3,89
423,18	-3,28
423,38	13,00
423,59	-1,33
423,80	-14,44
424,00	13,93
424,21	17,41
424,41	-0,20
424,62	11,26
424,82	-3,28
425,03	-20,68
425,24	9,01
425,44	-11,78
425,65	10,85
425,85	-6,86
426,06	-0,31
426,26	8,91
426,47	9,52
426,68	-11,37
426,88	8,50
427,09	7,78
427,29	2,56
427,50	-18,33
427,70	5,94
427,91	-15,05
428,12	4,71
428,32	8,91
428,53	10,44
428,73	6,14
428,94	-4,51
429,14	14,03
429,35	-11,37
429,56	16,08
429,76	-3,89
429,97	-7,58
430,17	-3,28
430,38	-6,14
430,58	-11,06
430,79	6,25
430,99	-16,69
431,20	-17,82
431,40	13,82
431,61	-10,96
431,82	8,81
432,02	19,66
432,23	-3,38
432,43	-3,69
432,64	8,29
432,84	-3,69
433,05	17,20
433,25	5,84
433,46	-3,07
433,66	3,69
433,87	-14,23
434,07	-0,41
434,28	-0,51
434,49	18,84
434,69	-20,17
434,90	-10,34
435,10	12,08
435,31	-14,23
435,51	0,51
435,72	-2,15
435,92	33,38
436,13	-18,33
436,33	1,13
436,54	6,96
436,74	1,95
436,95	-0,82
437,15	2,05
437,36	-5,12
437,56	9,32
437,77	4,61
437,97	5,02
438,18	-20,17
438,38	-29,70
438,59	4,71
438,79	7,58
439,00	-9,42
439,20	5,32
439,41	-16,38
439,61	13,82
439,82	-1,54
440,02	4,61
440,23	9,52
440,43	-11,88
440,64	-1,64
440,84	-1,43
441,05	-4,81
441,25	6,76
441,46	15,67
441,66	11,78
441,87	16,90
442,07	-6,86
442,28	10,75
442,48	-9,11
442,69	9,32
442,89	-20,48
443,10	17,51
443,30	0,31
443,51	-8,19
443,71	1,54
443,92	-3,79
444,12	14,54
444,32	10,14
444,53	3,48
444,73	16,69
444,94	-18,43
445,14	-10,55
445,35	13,21
445,55	-7,07
445,76	-30,21
445,96	-16,18
446,17	-2,76
446,37	-0,20
446,58	-9,52
446,78	-15,26
446,98	-12,70
447,19	18,64
447,39	13,31
447,60	-19,46
447,80	-2,46
448,01	5,84
448,21	3,17
448,42	-3,69
448,62	-10,75
448,82	7,37
449,03	-3,17
449,23	12,60
449,44	18,23
449,64	-10,85
449,85	2,36
450,05	19,76
450,26	-7,17
450,46	-1,84
450,66	18,84
450,87	16,49
451,07	6,04
451,28	9,11
451,48	-14,13
451,69	7,78
451,89	5,12
452,09	7,07
452,30	1,84
452,50	20,68
452,71	14,34
452,91	-13,11
453,12	23,14
453,32	6,76
453,52	5,94
453,73	-0,41
453,93	10,04
454,14	7,07
454,34	4,40
454,54	10,55
454,75	-3,99
454,95	6,55
455,16	6,66
455,36	10,04
455,56	-3,89
455,77	13,00
455,97	-22,32
456,18	3,58
456,38	-8,19
456,58	-3,58
456,79	4,20
456,99	3,69
457,20	-2,25
457,40	1,74
457,60	-6,96
457,81	5,43
458,01	-4,51
458,22	-7,48
458,42	-8,70
458,62	-5,84
458,83	0,41
459,03	-0,00
459,23	-12,08
459,44	19,97
459,64	2,36
459,85	-12,08
460,05	1,02
460,25	6,14
460,46	11,16
460,66	23,14
460,86	-9,22
461,07	19,76
461,27	6,86
461,48	-14,85
461,68	1,95
461,88	-14,85
462,09	2,87
462,29	0,61
462,49	-7,68
462,70	-10,44
462,90	-17,31
463,10	-8,91
463,31	-0,31
463,51	2,66
463,72	17,61
463,92	-10,24
464,12	-0,41
464,33	22,32
464,53	16,38
464,73	-3,99
464,94	28,06
465,14	3,79
465,34	-7,17
465,55	-8,50
465,75	-4,40
465,95	-7,37
466,16	6,25
466,36	22,22
466,56	8,60
466,77	10,04
466,97	-9,93
467,17	-5,53
467,38	2,05
467,58	2,25
467,78	-11,98
467,99	-8,29
468,19	33,48
468,39	4,92
468,60	-9,73
468,80	-7,78
469,00	-17,31
469,21	-15,77
469,41	0,51
469,61	-11,06
469,82	-4,92
470,02	20,48
470,22	-6,66
470,42	12,08
470,63	-4,20
470,83	6,25
471,03	3,48
471,24	-2,87
471,44	-9,52
471,64	11,98
471,85	-18,33
472,05	-8,70
472,25	-10,14
472,46	9,52
472,66	17,92
472,86	-33,69
473,06	12,49
473,27	-0,41
473,47	5,84
473,67	1,43
473,88	-16,69
474,08	-1,02
474,28	-6,14
474,48	-14,54
474,69	-5,12
474,89	-4,92
475,09	2,66
475,30	-1,64
475,50	-18,23
475,70	-3,79
475,90	-2,46
476,11	1,84
476,31	-11,37
476,51	-0,41
476,72	-9,42
476,92	-2,87
477,12	-8,19
477,32	-2,15
477,53	16,18
477,73	14,64
477,93	13,62
478,13	19,56
478,34	11,16
478,54	22,43
478,74	8,50
478,94	0,92
479,15	-4,40
479,35	4,71
479,55	14,64
479,75	0,92
479,96	-0,82
480,16	-18,12
480,36	-25,09
480,57	8,70
480,77	10,85
480,97	14,13
481,17	10,44
481,37	6,25
481,58	-4,51
481,78	5,43
481,98	0,61
482,18	-16,79
482,39	4,92
482,59	-25,91
482,79	7,99
482,99	-7,78
483,20	0,31
483,40	-9,83
483,60	-9,11
483,80	-3,48
484,01	2,46
484,21	-22,83
484,41	-9,32
484,61	-5,32
484,81	-11,06
485,02	-4,51
485,22	4,10
485,42	13,62
485,62	-8,29
485,83	7,68
486,03	7,37
486,23	11,26
486,43	12,60
486,63	22,22
486,84	-24,17
487,04	7,78
487,24	-10,75
487,44	-1,74
487,64	-2,25
487,85	5,84
488,05	3,79
488,25	-16,08
488,45	15,56
488,65	4,61
488,86	2,46
489,06	3,79
489,26	0,20
489,46	7,17
489,66	-8,91
489,87	1,33
490,07	-26,42
490,27	6,66
490,47	1,02
490,67	-4,10
490,88	5,53
491,08	-4,61
491,28	28,47
491,48	4,81
491,68	-10,96
491,88	-8,60
492,09	2,25
492,29	-0,00
492,49	-1,84
492,69	3,17
492,89	21,61
493,09	6,55
493,30	-14,03
493,50	2,15
493,70	12,39
493,90	0,20
494,10	-5,63
494,30	12,08
494,51	6,55
494,71	3,48
494,91	3,17
495,11	5,53
495,31	10,55
495,51	10,65
495,72	13,21
495,92	31,03
496,12	45,46
496,32	28,16
496,52	16,08
496,72	13,21
496,92	-12,29
497,13	0,72
497,33	-2,97
497,53	5,53
497,73	15,77
497,93	-1,43
498,13	-0,41
498,33	-5,12
498,54	9,32
498,74	17,00
498,94	-8,81
499,14	10,96
499,34	-0,61
499,54	17,31
499,74	18,53
499,94	0,41
500,15	-6,35
500,35	11,57
500,55	-4,51
500,75	5,12
500,95	-10,04
501,15	-4,51
501,35	-9,01
501,55	14,23
501,76	-15,97
501,96	-3,07
502,16	17,20
502,36	12,08
502,56	5,63
502,76	-11,06
502,96	1,54
503,16	20,68
503,36	32,97
503,57	5,02
503,77	2,56
503,97	-21,09
504,17	-12,29
504,37	2,15
504,57	-18,43
504,77	18,12
504,97	-1,23
505,17	15,56
505,37	8,70
505,57	-18,74
505,78	12,49
505,98	6,55
506,18	-19,35
506,38	-8,70
506,58	-1,95
506,78	-5,02
506,98	-15,77
507,18	5,02
507,38	30,82
507,58	-9,11
507,78	7,48
507,98	20,58
508,19	-13,62
508,39	1,33
508,59	-4,92
508,79	0,20
508,99	-9,63
509,19	-2,46
509,39	9,32
509,59	-4,71
509,79	11,47
509,99	22,53
510,19	-17,31
510,39	-4,20
510,59	18,64
510,79	-20,68
510,99	-18,74
511,19	-19,76
511,39	-3,99
511,60	15,26
511,80	5,53
512,00	5,12
512,20	10,04
512,40	10,14
512,60	36,66
512,80	17,71
513,00	7,48
513,20	3,28
513,40	2,87
513,60	15,05
513,80	-3,99
514,00	17,10
514,20	15,36
514,40	5,94
514,60	18,94
514,80	5,43
515,00	-12,49
515,20	1,95
515,40	-7,37
515,60	2,97
515,80	0,31
516,00	-0,20
516,20	13,93
516,40	39,42
516,60	9,42
516,80	-1,74
517,00	10,04
517,20	1,64
517,40	3,89
517,60	13,62
517,80	-14,95
518,00	-7,88
518,20	2,56
518,40	-11,37
518,60	-2,97
518,80	13,62
519,00	7,27
519,20	17,20
519,40	-3,99
519,60	-4,30
519,80	6,55
520,00	0,61
520,20	9,11
520,40	-1,33
520,60	16,79
520,80	-21,81
521,00	3,99
521,20	-12,08
521,40	-14,23
521,60	17,20
521,80	-8,09
522,00	-1,33
522,20	2,25
522,40	-8,70
522,60	11,88
522,80	9,22
523,00	18,64
523,20	-18,74
523,40	8,70
523,60	8,81
523,80	14,13
524,00	-3,38
524,20	20,58
524,40	-3,58
524,60	7,68
524,80	-6,86
525,00	-11,37
525,20	5,84
525,40	15,36
525,60	9,01
525,80	-8,81
526,00	-3,48
526,20	23,04
526,40	18,64
526,60	21,40
526,79	-0,61
526,99	28,88
527,19	2,97
527,39	-18,43
527,59	-1,54
527,79	0,10
527,99	1,64
528,19	4,40
528,39	-11,16
528,59	4,30
528,79	18,53
528,99	10,24
529,19	-6,55
529,39	7,99
529,59	7,27
529,79	11,06
529,98	4,51
530,18	1,84
530,38	4,81
530,58	3,48
530,78	2,56
530,98	10,85
531,18	9,01
531,38	-10,14
531,58	20,07
531,78	-0,31
531,98	14,75
532,18	19,25
532,37	-18,64
532,57	-25,70
532,77	27,75
532,97	12,70
533,17	-0,41
533,37	6,45
533,57	-10,65
533,77	9,63
533,97	8,70
534,17	-14,23
534,37	17,00
534,56	-25,39
534,76	7,68
534,96	5,94
535,16	23,76
535,36	5,12
535,56	-2,46
535,76	5,32
535,96	-10,55
536,16	20,48
536,35	-12,29
536,55	-1,64
536,75	9,83
536,95	9,93
537,15	2,87
537,35	30,62
537,55	2,36
537,75	-10,44
537,94	-6,04
538,14	-8,09
538,34	2,05
538,54	-5,02
538,74	-15,46
538,94	-28,06
539,14	11,98
539,34	4,30
539,53	14,64
539,73	-3,28
539,93	18,33
540,13	-0,72
540,33	12,60
540,53	6,04
540,73	6,76
540,92	23,04
541,12	0,41
541,32	17,20
541,52	13,72
541,72	23,45
541,92	5,84
542,11	-3,17
542,31	-11,26
542,51	27,75
542,71	-6,35
542,91	3,58
543,11	3,79
543,30	-3,58
543,50	-0,82
543,70	-14,85
543,90	5,84
544,10	-17,71
544,30	4,10
544,49	14,95
544,69	24,27
544,89	7,99
545,09	-2,66
545,29	3,99
545,49	15,97
545,68	18,33
545,88	13,72
546,08	6,86
546,28	5,94
546,48	15,67
546,67	1,84
546,87	9,83
547,07	10,14
547,27	-17,20
547,47	5,32
547,67	8,91
547,86	-13,62
548,06	12,19
548,26	16,90
548,46	-16,18
548,66	9,83
548,85	-7,27
549,05	3,89
549,25	5,94
549,45	1,54
549,65	20,58
549,84	-3,17
550,04	13,62
550,24	13,93
550,44	7,68
550,63	-4,10
550,83	1,74
551,03	20,79
551,23	0,20
551,43	-0,92
551,62	-1,95
551,82	9,42
552,02	-10,14
552,22	-12,60
552,41	3,79
552,61	6,25
552,81	15,97
553,01	25,50
553,21	17,51
553,40	6,04
553,60	0,41
553,80	-11,98
554,00	10,55
554,19	7,88
554,39	9,83
554,59	-7,27
554,79	10,34
554,98	5,12
555,18	9,52
555,38	25,80
555,58	18,53
555,77	20,89
555,97	-1,13
556,17	1,84
556,37	11,06
556,56	-3,07
556,76	20,89
556,96	21,81
557,16	11,16
557,35	-7,58
557,55	15,05
557,75	25,09
557,95	0,61
558,14	-5,32
558,34	10,75
558,54	30,41
558,73	-1,02
558,93	9,83
559,13	14,95
559,33	32,97
559,52	-6,45
559,72	15,36
559,92	10,96
560,12	4,40
560,31	13,52
560,51	13,31
560,71	28,57
560,90	7,37
561,10	24,99
561,30	-7,78
561,50	24,17
561,69	21,20
561,89	18,94
562,09	22,32
562,28	10,75
562,48	21,50
562,68	26,11
562,87	18,53
563,07	-2,25
563,27	11,88
563,47	15,97
563,66	16,59
563,86	21,61
564,06	39,42
564,25	29,18
564,45	35,43
564,65	31,95
564,84	38,40
565,04	60,93
565,24	113,25
565,43	155,54
565,63	207,77
565,83	286,41
566,02	331,57
566,22	394,85
566,42	380,10
566,61	348,15
566,81	291,94
567,01	226,10
567,20	185,85
567,40	132,30
567,60	98,81
567,79	46,90
567,99	47,21
568,19	62,87
568,38	65,23
568,58	63,08
568,78	23,65
568,97	28,57
569,17	29,59
569,37	26,52
569,56	32,77
569,76	45,77
569,96	45,87
570,15	38,60
570,35	38,09
570,55	54,89
570,74	55,60
570,94	30,72
571,13	45,26
571,33	13,41
571,53	35,94
571,72	48,64
571,92	34,51
572,12	49,77
572,31	52,12
572,51	25,39
572,71	43,83
572,90	29,90
573,10	51,71
573,29	44,75
573,49	43,72
573,69	38,09
573,88	56,52
574,08	42,60
574,28	53,66
574,47	60,62
574,67	52,94
574,86	64,61
575,06	42,50
575,26	78,03
575,45	48,74
575,65	45,46
575,84	57,45
576,04	54,78
576,24	72,70
576,43	55,40
576,63	51,51
576,82	56,63
577,02	60,93
577,22	60,62
577,41	68,20
577,61	82,84
577,80	70,25
578,00	67,58
578,20	65,84
578,39	75,06
578,59	80,49
578,78	76,08
578,98	75,88
579,17	86,83
579,37	86,63
579,57	96,05
579,76	84,89
579,96	89,39
580,15	99,74
580,35	106,80
580,55	98,61
580,74	116,32
580,94	116,12
581,13	145,30
581,33	163,12
581,52	147,86
581,72	185,96
581,91	190,26
582,11	194,97
582,31	187,29
582,50	216,16
582,70	198,96
582,89	223,23
583,09	217,08
583,28	233,16
583,48	222,31
583,67	239,61
583,87	239,51
584,07	261,32
584,26	256,92
584,46	291,73
584,65	300,64
584,85	366,07
585,04	486,80
585,24	1111,33
585,43	3175,79
585,63	7400,85
585,82	14280,79
586,02	25397,99
586,21	38802,56
586,41	51801,22
586,61	58162,52
586,80	60568,68
587,00	61114,77
587,19	60161,54
587,39	56913,97
587,58	50982,65
587,78	44505,84
587,97	35808,32
588,17	20214,17
588,36	11629,90
588,56	7982,67
588,75	5718,44
588,95	4192,50
589,14	3153,36
589,34	2364,79
589,53	1729,00
589,73	1306,60
589,92	953,74
590,12	707,98
590,31	517,93
590,51	466,83
590,70	340,37
590,90	325,63
591,09	269,62
591,29	241,46
591,48	231,11
591,68	209,71
591,87	196,20
592,07	197,32
592,26	178,17
592,46	188,72
592,65	178,89
592,85	186,16
593,04	156,57
593,24	161,48
593,43	129,23
593,63	152,98
593,82	116,02
594,01	115,81
594,21	111,51
594,40	122,16
594,60	124,41
594,79	90,52
594,99	100,66
595,18	113,56
595,38	113,15
595,57	80,89
595,77	80,18
595,96	95,54
596,16	75,26
596,35	82,12
596,54	77,41
596,74	67,28
596,93	79,05
597,13	75,16
597,32	79,05
597,52	79,67
597,71	74,14
597,91	88,98
598,10	95,23
598,29	83,76
598,49	58,16
598,68	72,40
598,88	63,79
599,07	52,84
599,27	48,95
599,46	30,31
599,65	61,23
599,85	71,47
600,04	35,33
600,24	64,72
600,43	51,10
600,63	45,46
600,82	50,28
601,01	66,15
601,21	62,57
601,40	65,64
601,60	35,53
601,79	45,67
601,99	39,63
602,18	57,04
602,37	42,90
602,57	59,29
602,76	38,30
602,96	41,16
603,15	53,55
603,34	47,51
603,54	39,53
603,73	71,06
603,93	61,03
604,12	51,92
604,31	60,31
604,51	22,02
604,70	41,27
604,90	24,17
605,09	26,73
605,28	35,43
605,48	45,46
605,67	48,84
605,86	34,71
606,06	39,63
606,25	23,45
606,45	33,59
606,64	37,58
606,83	56,32
607,03	32,67
607,22	43,21
607,41	53,25
607,61	13,82
607,80	12,29
608,00	17,82
608,19	20,99
608,38	35,94
608,58	41,78
608,77	41,88
608,96	16,90
609,16	31,95
609,35	28,88
609,54	19,76
609,74	14,95
609,93	18,53
610,12	24,88
610,32	12,80
610,51	52,53
610,71	20,07
610,90	28,16
611,09	22,22
611,29	-10,24
611,48	11,37
611,67	15,77
611,87	24,58
612,06	34,51
612,25	36,66
612,45	8,81
612,64	49,87
612,83	66,15
613,03	56,73
613,22	66,25
613,41	64,51
613,61	104,04
613,80	91,54
613,99	94,10
614,18	81,51
614,38	70,45
614,57	50,28
614,76	37,07
614,96	31,03
615,15	20,58
615,34	40,14
615,54	19,87
615,73	17,71
615,92	19,76
616,12	19,15
616,31	18,84
616,50	24,78
616,69	16,69
616,89	9,42
617,08	17,82
617,27	22,53
617,47	25,50
617,66	3,69
617,85	25,19
618,05	20,99
618,24	21,81
618,43	38,19
618,62	8,40
618,82	26,21
619,01	3,28
619,20	-3,28
619,40	22,32
619,59	5,53
619,78	-9,93
619,97	35,02
620,17	17,92
620,36	20,48
620,55	0,41
620,74	22,32
620,94	28,36
621,13	-2,97
621,32	13,52
621,51	35,74
621,71	8,60
621,90	7,17
622,09	8,40
622,29	-4,40
622,48	18,53
622,67	1,54
622,86	25,09
623,06	14,75
623,25	13,11
623,44	6,45
623,63	26,73
623,83	20,89
624,02	-5,53
624,21	0,72
624,40	-5,22
624,59	-7,07
624,79	-0,82
624,98	26,62
625,17	-5,53
625,36	24,88
625,56	5,22
625,75	39,32
625,94	6,35
626,13	11,37
626,33	28,06
626,52	6,66
626,71	1,95
626,90	18,84
627,09	11,47
627,29	23,04
627,48	28,47
627,67	32,26
627,86	-3,58
628,05	20,89
628,25	3,17
628,44	9,63
628,63	5,12
628,82	15,56
629,02	20,89
629,21	22,02
629,40	36,56
629,59	8,70
629,78	13,72
629,98	12,49
630,17	17,10
630,36	21,30
630,55	2,46
630,74	3,69
630,93	-1,33
631,13	14,95
631,32	2,66
631,51	24,17
631,70	18,94
631,89	43,62
632,09	8,29
632,28	-21,20
632,47	12,29
632,66	28,88
632,85	-18,12
633,04	9,01
633,24	23,24
633,43	10,14
633,62	-7,99
633,81	12,70
634,00	9,52
634,19	-8,70
634,39	3,28
634,58	15,15
634,77	21,71
634,96	7,07
635,15	13,11
635,34	10,96
635,54	8,40
635,73	10,14
635,92	-11,88
636,11	-0,00
636,30	13,11
636,49	7,27
636,68	7,37
636,88	7,27
637,07	15,97
637,26	28,36
637,45	17,31
637,64	0,31
637,83	6,76
638,02	19,35
638,21	21,61
638,41	-1,23
638,60	33,07
638,79	10,24
638,98	25,80
639,17	20,38
639,36	9,83
639,55	20,48
639,74	14,54
639,94	6,86
640,13	26,52
640,32	7,07
640,51	9,83
640,70	21,91
640,89	-0,92
641,08	24,99
641,27	9,52
641,46	-4,61
641,66	0,31
641,85	14,34
642,04	15,87
642,23	8,19
642,42	-1,74
642,61	-0,41
642,80	5,73
642,99	-12,29
643,18	21,61
643,37	40,04
643,56	15,46
643,76	8,70
643,95	8,91
644,14	8,29
644,33	17,00
644,52	5,94
644,71	10,75
644,90	17,20
645,09	14,75
645,28	26,32
645,47	16,18
645,66	6,45
645,85	-12,80
646,04	-9,52
646,24	20,89
646,43	-15,77
646,62	0,20
646,81	25,19
647,00	8,29
647,19	12,70
647,38	10,04
647,57	11,26
647,76	13,82
647,95	11,57
648,14	2,97
648,33	30,72
648,52	-2,66
648,71	1,84
648,90	10,65
649,09	12,70
649,28	11,06
649,47	1,23
649,66	32,87
649,85	13,11
650,05	5,12
650,24	10,04
650,43	-1,74
650,62	5,12
650,81	0,20
651,00	-15,46
651,19	11,67
651,38	2,97
651,57	10,04
651,76	12,90
651,95	12,19
652,14	-6,35
652,33	19,35
652,52	9,73
652,71	-4,40
652,90	-19,97
653,09	7,07
653,28	17,20
653,47	2,97
653,66	-10,85
653,85	-3,07
654,04	2,15
654,23	-3,17
654,42	10,24
654,61	-0,51
654,80	-10,85
654,99	-11,88
655,18	5,22
655,37	1,33
655,56	12,29
655,75	12,49
655,94	4,92
656,13	-8,91
656,32	5,22
656,51	19,66
656,70	14,95
656,89	9,11
657,08	8,81
657,27	10,24
657,46	14,64
657,65	-2,56
657,84	13,52
658,03	-11,16
658,22	20,48
658,40	1,43
658,59	7,48
658,78	-8,40
658,97	11,57
659,16	15,26
659,35	16,28
659,54	5,32
659,73	1,33
659,92	-0,20
660,11	1,84
660,30	16,18
660,49	-17,51
660,68	-0,82
660,87	8,09
661,06	22,22
661,25	10,75
661,44	5,32
661,63	4,10
661,82	15,15
662,01	1,13
662,19	10,44
662,38	3,69
662,57	5,32
662,76	-7,58
662,95	13,82
663,14	8,50
663,33	10,96
663,52	6,25
663,71	-11,88
663,90	-16,18
664,09	-5,32
664,28	9,22
664,47	-5,63
664,65	2,76
664,84	-1,74
665,03	-16,28
665,22	8,09
665,41	5,94
665,60	14,23
665,79	-5,12
665,98	-8,40
666,17	-6,35
666,36	3,58
666,55	-0,82
666,73	16,38
666,92	-4,61
667,11	-8,60
667,30	5,94
667,49	-1,54
667,68	-15,67
667,87	11,37
668,06	15,26
668,25	5,32
668,43	4,61
668,62	-14,44
668,81	6,96
669,00	0,61
669,19	15,05
669,38	0,61
669,57	-3,07
669,76	-18,53
669,94	-2,25
670,13	6,14
670,32	11,98
670,51	6,76
670,70	9,63
670,89	6,45
671,08	-7,17
671,26	11,37
671,45	4,71
671,64	-8,50
671,83	-5,53
672,02	15,26
672,21	-2,76
672,40	15,56
672,58	-3,38
672,77	13,11
672,96	20,27
673,15	22,94
673,34	-11,57
673,53	24,37
673,71	9,11
673,90	9,73
674,09	13,52
674,28	5,94
674,47	9,11
674,66	-20,89
674,84	9,63
675,03	2,05
675,22	9,93
675,41	4,81
675,60	21,20
675,79	9,01
675,97	16,79
676,16	-7,78
676,35	9,52
676,54	-6,76
676,73	-3,99
676,91	3,07
677,10	11,98
677,29	2,97
677,48	5,02
677,67	8,91
677,86	-6,45
678,04	4,81
678,23	-5,53
678,42	1,02
678,61	4,92
678,80	8,81
678,98	6,86
679,17	-14,44
679,36	-0,41
679,55	3,69
679,73	5,02
679,92	7,07
680,11	13,21
680,30	10,24
680,49	-5,53
680,67	-12,80
680,86	7,58
681,05	-9,42
681,24	-10,96
681,42	-31,13
681,61	19,87
681,80	-10,34
681,99	0,20
682,18	11,88
682,36	-11,16
682,55	-14,34
682,74	-22,02
682,93	0,10
683,11	3,69
683,30	-2,05
683,49	12,19
683,68	-2,15
683,86	-1,84
684,05	11,47
684,24	-8,50
684,43	11,78
684,61	-14,54
684,80	17,41
684,99	13,00
685,18	19,05
685,36	0,41
685,55	13,21
685,74	-4,30
685,93	-2,87
686,11	-12,19
686,30	7,37
686,49	15,05
686,67	0,41
686,86	14,54
687,05	-5,63
687,24	20,38
687,42	6,86
687,61	24,27
687,80	-4,92
687,99	-11,78
688,17	-3,28
688,36	-0,41
688,55	1,74
688,73	-14,95
688,92	-10,75
689,11	-2,56
689,29	14,54
689,48	9,01
689,67	-9,93
689,86	-2,15
690,04	4,10
690,23	11,78
690,42	0,51
690,60	-2,87
690,79	7,48
690,98	-9,93
691,16	0,82
691,35	-5,53
691,54	11,06
691,72	-16,90
691,91	-0,10
692,10	-3,89
692,29	8,60
692,47	-16,08
692,66	10,04
692,85	12,29
693,03	-1,33
693,22	19,97
693,41	41,78
693,59	75,06
693,78	120,11
693,97	119,81
694,15	144,69
694,34	138,14
694,53	134,55
694,71	108,75
694,90	81,30
695,09	49,87
695,27	33,38
695,46	18,02
695,64	18,02
695,83	0,82
696,02	4,40
696,20	5,22
696,39	0,20
696,58	6,35
696,76	17,71
696,95	0,82
697,14	18,74
697,32	18,23
697,51	-2,05
697,70	-6,04
697,88	22,63
698,07	-4,51
698,25	-14,64
698,44	2,46
698,63	-16,38
698,81	8,91
699,00	3,69
699,19	-4,51
699,37	2,97
699,56	-6,25
699,74	-15,26
699,93	11,16
700,12	7,58
700,30	-14,64
700,49	-2,56
700,67	3,07
700,86	7,78
701,05	-2,15
701,23	-1,54
701,42	11,06
701,60	-17,10
701,79	6,76
701,98	-1,64
702,16	5,12
702,35	12,08
702,53	-3,99
702,72	12,80
702,91	22,02
703,09	-15,67
703,28	18,12
703,46	16,90
703,65	37,89
703,83	50,28
704,02	81,00
704,21	81,82
704,39	106,70
704,58	81,10
704,76	60,42
704,95	62,46
705,13	32,05
705,32	30,31
705,51	25,50
705,69	22,12
705,88	8,81
706,06	18,84
706,25	20,38
706,43	5,02
706,62	10,24
706,80	-5,02
706,99	-1,43
707,18	-8,29
707,36	12,90
707,55	-16,90
707,73	-12,29
707,92	7,27
708,10	2,76
708,29	-1,13
708,47	-16,59
708,66	19,15
708,84	3,79
709,03	7,78
709,21	-5,63
709,40	6,55
709,59	-2,97
709,77	16,08
709,96	5,94
710,14	19,97
710,33	5,12
710,51	-13,31
710,70	-2,56
710,88	-5,02
711,07	-4,40
711,25	3,99
711,44	17,92
711,62	17,10
711,81	-5,84
711,99	14,03
712,18	10,24
712,36	-6,35
712,55	17,10
712,73	11,88
712,92	25,09
713,10	14,64
713,29	12,80
713,47	-4,92
713,66	-6,45
713,84	-6,66
714,03	-13,00
714,21	12,80
714,40	15,26
714,58	-12,08
714,77	1,95
714,95	2,66
715,14	4,61
715,32	-1,43
715,51	-9,11
715,69	-5,22
715,87	-1,33
716,06	-25,50
716,24	-16,69
716,43	-2,25
716,61	3,28
716,80	10,34
716,98	-3,28
717,17	-1,84
717,35	-6,45
717,54	-1,64
717,72	16,38
717,91	2,46
718,09	0,82
718,27	-7,07
718,46	-8,91
718,64	-4,40
718,83	14,44
719,01	-6,04
719,20	-17,20
719,38	5,32
719,57	-16,90
719,75	8,19
719,93	-25,29
720,12	10,34
720,30	14,44
720,49	9,32
720,67	-5,43
720,86	-1,02
721,04	6,76
721,22	13,21
721,41	8,60
721,59	-29,80
721,78	3,89
721,96	-3,17
722,14	3,89
722,33	-14,85
722,51	-7,07
722,70	21,50
722,88	-2,56
723,06	13,82
723,25	6,96
723,43	6,35
723,62	-14,03
723,80	-8,81
723,98	6,35
724,17	-5,12
724,35	14,54
724,54	6,96
724,72	21,40
724,90	22,43
725,09	41,27
725,27	26,62
725,46	11,26
725,64	26,93
725,82	27,55
726,01	-12,90
726,19	17,00
726,38	-4,61
726,56	-2,05
726,74	13,93
726,93	-12,49
727,11	25,91
727,29	5,12
727,48	6,96
727,66	11,47
727,84	-1,74
728,03	-1,95
728,21	8,40
728,40	-11,67
728,58	10,96
728,76	-15,36
728,95	-17,31
729,13	-6,66
729,31	-15,05
729,50	-6,04
729,68	3,48
729,86	-4,10
730,05	18,23
730,23	25,19
730,41	-3,38
730,60	8,50
730,78	-0,61
730,96	3,48
731,15	-3,07
731,33	-13,93
731,51	-1,95
731,70	9,42
731,88	-8,70
732,06	3,89
732,25	11,06
732,43	3,38
732,61	15,67
732,80	2,76
732,98	-5,84
733,16	6,35
733,34	6,96
733,53	17,41
733,71	-7,48
733,89	5,53
734,08	-12,60
734,26	8,81
734,44	-0,20
734,63	14,03
734,81	4,81
734,99	32,46
735,18	49,56
735,36	62,87
735,54	67,38
735,72	136,19
735,91	132,20
736,09	163,33
736,27	148,07
736,46	125,03
736,64	92,98
736,82	73,52
737,00	38,50
737,19	54,07
737,37	15,97
737,55	8,29
737,73	4,81
737,92	-0,41
738,10	-2,46
738,28	2,46
738,47	15,67
738,65	-6,35
738,83	7,07
739,01	8,60
739,20	-18,84
739,38	6,55
739,56	7,17
739,74	-3,89
739,93	6,14
740,11	-8,40
740,29	-1,54
740,47	-5,12
740,66	4,10
740,84	4,40
741,02	6,86
741,20	0,31
741,38	13,00
741,57	15,05
741,75	-12,90
741,93	-4,71
742,11	11,98
742,30	-1,95
742,48	2,66
742,66	15,46
742,84	-9,32
743,03	-11,26
743,21	11,37
743,39	-1,95
743,57	-3,17
743,75	0,10
743,94	-21,50
744,12	6,86
744,30	6,76
744,48	23,76
744,66	1,02
744,85	7,27
745,03	7,58
745,21	3,79
745,39	15,26
745,57	21,91
745,76	-6,35
745,94	2,56
746,12	1,64
746,30	14,13
746,48	18,33
746,67	21,09
746,85	17,41
747,03	30,00
747,21	35,02
747,39	65,54
747,57	87,86
747,76	100,66
747,94	107,93
748,12	139,57
748,30	159,43
748,48	150,94
748,67	156,87
748,85	150,83
749,03	161,28
749,21	156,16
749,39	140,39
749,57	119,40
749,75	77,00
749,94	58,37
750,12	28,36
750,30	13,41
750,48	38,91
750,66	33,38
750,84	24,99
751,03	11,78
751,21	16,38
751,39	36,97
751,57	-19,35
751,75	6,66
751,93	3,79
752,11	4,71
752,29	5,32
752,48	15,46
752,66	14,64
752,84	20,17
753,02	14,23
753,20	7,99
753,38	-3,28
753,56	-25,50
753,74	-3,28
753,93	8,70
754,11	10,55
754,29	-2,87
754,47	-17,10
754,65	-12,70
754,83	-5,94
755,01	-6,76
755,19	12,70
755,37	14,23
755,56	8,29
755,74	-24,88
755,92	11,16
756,10	5,73
756,28	17,82
756,46	-4,71
756,64	-1,74
756,82	8,09
757,00	10,85
757,18	13,41
757,36	11,67
757,55	-6,55
757,73	5,32
757,91	15,05
758,09	-6,96
758,27	-0,10
758,45	4,61
758,63	16,79
758,81	9,63
758,99	-12,19
759,17	15,46
759,35	2,46
759,53	-6,35
759,71	-1,02
759,89	19,25
760,08	70,76
760,26	131,48
760,44	239,20
760,62	397,61
760,80	544,15
760,98	658,42
761,16	710,95
761,34	680,44
761,52	591,25
761,70	434,99
761,88	325,73
762,06	227,43
762,24	165,68
762,42	131,79
762,60	98,71
762,78	60,11
762,96	47,72
763,14	36,97
763,32	39,42
763,50	38,60
763,68	40,65
763,86	44,13
764,04	56,01
764,22	28,36
764,40	41,37
764,58	34,41
764,76	11,88
764,94	15,67
765,12	32,87
765,30	2,87
765,48	7,37
765,66	-10,44
765,84	0,51
766,02	1,84
766,20	7,37
766,38	-6,35
766,56	-7,17
766,74	-0,31
766,92	22,12
767,10	7,58
767,28	9,63
767,46	-6,25
767,64	20,07
767,82	1,64
768,00	14,34
768,18	14,95
768,36	20,27
768,54	14,23
768,72	-13,21
768,90	18,53
769,08	58,78
769,26	69,12
769,44	81,41
769,62	141,82
769,80	178,28
769,98	204,39
770,16	206,74
770,34	180,53
770,52	166,81
770,70	135,78
770,88	97,59
771,06	47,00
771,24	35,12
771,42	34,51
771,60	24,06
771,78	17,71
771,96	-0,51
772,13	6,14
772,31	-3,99
772,49	-2,76
772,67	-4,20
772,85	0,10
773,03	12,49
773,21	-3,79
773,39	1,43
773,57	20,07
773,75	-6,35
773,93	1,84
774,11	3,28
774,29	-3,79
774,47	-7,68
774,64	-24,37
774,82	13,62
775,00	11,78
775,18	22,12
775,36	17,82
775,54	-17,31
775,72	-0,41
775,90	21,20
776,08	-8,81
776,26	-4,81
776,43	32,77
776,61	10,24
776,79	-9,11
776,97	26,11
777,15	26,52
777,33	20,07
777,51	-8,60
777,69	-15,05
777,87	12,29
778,04	-7,27
778,22	-3,38
778,40	-13,00
778,58	-3,48
778,76	-7,88
778,94	2,36
779,12	13,62
779,30	12,08
779,47	-24,37
779,65	9,42
779,83	13,93
780,01	-9,32
780,19	5,84
780,37	24,58
780,55	-13,31
780,73	15,26
780,90	-5,53
781,08	-11,98
781,26	-20,79
781,44	-2,76
781,62	-7,48
781,80	-0,92
781,97	19,35
782,15	-13,93
782,33	-1,02
782,51	-12,08
782,69	3,28
782,87	4,61
783,04	7,07
783,22	-1,33
783,40	12,70
783,58	14,03
783,76	26,73
783,94	-3,79
784,11	-9,73
784,29	-1,02
784,47	30,00
784,65	5,94
784,83	-13,11
785,01	11,37
785,18	-22,22
785,36	-0,00
785,54	5,73
785,72	10,44
785,90	0,72
786,07	-2,66
786,25	4,81
786,43	8,50
786,61	-2,97
786,79	-15,36
786,96	-13,41
787,14	24,37
787,32	6,45
787,50	27,34
787,67	-15,97
787,85	0,10
788,03	-7,99
788,21	2,25
788,39	7,48
788,56	5,12
788,74	15,15
788,92	-4,51
789,10	-19,97
789,27	-0,61
789,45	16,08
789,63	3,79
789,81	2,36
789,99	-3,28
790,16	8,91
790,34	0,10
790,52	12,19
790,70	-9,32
790,87	10,55
791,05	-1,74
791,23	5,22
791,41	-21,50
791,58	43,21
791,76	40,96
791,94	64,41
792,12	74,55
792,29	92,36
792,47	85,91
792,65	122,78
792,82	83,86
793,00	73,83
793,18	53,55
793,36	33,18
793,53	26,83
793,71	2,15
793,89	7,48
794,07	11,16
794,24	18,43
794,42	23,35
794,60	-6,55
794,77	11,98
794,95	3,07
795,13	6,96
795,31	8,70
795,48	4,40
795,66	19,56
795,84	-2,76
796,01	-4,61
796,19	4,92
796,37	-15,15
796,54	4,30
796,72	29,80
796,90	-3,48
797,08	-3,07
797,25	7,58
797,43	29,90
797,61	32,67
797,78	52,94
797,96	55,50
798,14	60,62
798,31	70,86
798,49	103,42
798,67	99,33
798,84	119,09
799,02	102,91
799,20	108,13
799,37	94,62
799,55	95,44
799,73	58,26
799,90	33,79
800,08	47,51
800,26	29,29
800,43	-2,76
800,61	20,17
800,79	22,83
800,96	-8,91
801,14	11,78
801,32	24,37
801,49	-16,69
801,67	5,32
801,84	18,94
802,02	12,60
802,20	-12,49
802,37	-17,51
802,55	5,53
802,73	-0,20
802,90	9,32
803,08	6,55
803,26	1,13
803,43	18,23
803,61	-2,87
803,78	20,48
803,96	13,82
804,14	2,56
804,31	-8,60
804,49	14,03
804,67	4,71
804,84	-4,30
805,02	-13,93
805,19	-7,07
805,37	29,70
805,55	-7,88
805,72	-36,86
805,90	8,09
806,07	-1,43
806,25	7,88
806,43	25,39
806,60	4,81
806,78	20,58
806,95	14,54
807,13	28,06
807,30	44,03
807,48	84,99
807,66	88,17
807,83	119,09
808,01	133,94
808,18	157,69
808,36	193,33
808,54	250,98
808,71	302,08
808,89	333,51
809,06	382,97
809,24	384,20
809,41	341,19
809,59	264,70
809,76	218,42
809,94	177,05
810,12	105,68
810,29	104,34
810,47	84,17
810,64	48,43
810,82	51,10
810,99	46,69
811,17	45,26
811,34	35,02
811,52	41,88
811,69	9,11
811,87	9,42
812,05	9,83
812,22	8,81
812,40	-1,43
812,57	-1,64
812,75	15,26
812,92	6,86
813,10	11,98
813,27	2,15
813,45	11,16
813,62	2,46
813,80	0,82
813,97	0,61
814,15	18,94
814,32	4,40
814,50	-1,43
814,67	14,03
814,85	35,74
815,02	89,70
815,20	134,86
815,37	210,43
815,55	295,62
815,72	374,57
815,90	410,31
816,07	491,82
816,25	549,98
816,42	562,68
816,60	635,69
816,77	703,99
816,95	772,19
817,12	794,82
817,30	720,89
817,47	666,31
817,65	512,40
817,82	401,50
818,00	319,28
818,17	248,01
818,35	205,72
818,52	178,69
818,70	131,07
818,87	83,66
819,04	97,89
819,22	71,47
819,39	66,25
819,57	39,94
819,74	52,53
819,92	33,48
820,09	39,22
820,27	33,59
820,44	19,66
820,62	22,02
820,79	15,77
820,96	20,89
821,14	19,76
821,31	14,03
821,49	32,15
821,66	-2,76
821,84	22,22
822,01	-7,68
822,18	3,38
822,36	2,56
822,53	3,28
822,71	16,69
822,88	4,20
823,06	6,04
823,23	7,37
823,40	17,20
823,58	49,05
823,75	28,77
823,93	42,09
824,10	55,91
824,27	61,85
824,45	42,19
824,62	37,89
824,80	31,64
824,97	27,24
825,14	26,01
825,32	23,76
825,49	-1,74
825,67	1,33
825,84	5,53
826,01	22,73
826,19	11,78
826,36	-3,48
826,54	9,01
826,71	12,90
826,88	-1,54
827,06	-1,43
827,23	-10,34
827,40	4,71
827,58	-1,02
827,75	4,20
827,93	12,19
828,10	-2,15
828,27	11,78
828,45	17,82
828,62	-2,66
828,79	-21,61
828,97	-4,10
829,14	14,03
829,31	-2,36
829,49	3,48
829,66	1,43
829,83	1,33
830,01	19,35
830,18	-11,57
830,35	-18,74
830,53	13,00
830,70	12,49
830,87	8,50
831,05	-8,19
831,22	-2,76
831,39	-16,08
831,57	-6,55
831,74	-6,76
831,91	4,40
832,09	-18,23
832,26	-9,32
832,43	-2,15
832,61	-0,20
832,78	0,31
832,95	-1,54
833,13	-7,27
833,30	-22,43
833,47	7,27
833,65	7,99
833,82	-7,88
833,99	5,12
834,16	-22,02
834,34	2,15
834,51	5,63
834,68	8,70
834,86	25,19
835,03	11,98
835,20	0,10
835,38	2,25
835,55	-6,76
835,72	-0,20
835,89	5,94
836,07	-18,64
836,24	22,53
836,41	-1,33
836,58	-12,90
836,76	10,44
836,93	16,28
837,10	-4,61
837,28	-11,67
837,45	18,12
837,62	16,59
837,79	15,46
837,97	25,91
838,14	50,58
838,31	35,53
838,48	49,15
838,66	60,21
838,83	74,24
839,00	65,53
839,17	54,78
839,35	47,62
839,52	55,40
839,69	70,65
839,86	61,44
840,04	68,30
840,21	67,79
840,38	53,76
840,55	82,84
840,72	81,51
840,90	69,32
841,07	39,73
841,24	24,78
841,41	47,41
841,59	31,13
841,76	36,04
841,93	8,29
842,10	32,36
842,27	0,20
842,45	6,86
842,62	10,55
842,79	24,88
842,96	-3,69
843,13	-2,05
843,31	3,07
843,48	-0,00
843,65	11,88
843,82	-5,94
843,99	-15,67
844,17	13,82
844,34	4,92
844,51	0,92
844,68	3,58
844,85	10,04
845,02	20,89
845,20	19,25
845,37	-0,31
845,54	-16,08
845,71	4,61
845,88	3,58
846,06	-0,61
846,23	12,39
846,40	-3,69
846,57	5,73
846,74	28,26
846,91	-11,67
847,09	1,43
847,26	-2,15
847,43	9,42
847,60	-15,05
847,77	-11,67
847,94	1,23
848,11	9,93
848,29	-17,00
848,46	-27,95
848,63	11,67
848,80	-15,36
848,97	7,27
849,14	21,71
849,31	13,00
849,49	12,08
849,66	28,67
849,83	12,08
850,00	5,53
850,17	-17,82
850,34	18,64
850,51	13,52
850,68	3,38
850,85	12,60
851,03	2,87
851,20	0,51
851,37	9,73
851,54	10,04
851,71	-20,89
851,88	5,73
852,05	-5,12
852,22	3,79
852,39	-15,67
852,57	7,07
852,74	-7,88
852,91	6,14
853,08	-0,31
853,25	-25,19
853,42	-9,11
853,59	18,64
853,76	12,80
853,93	9,01
854,10	1,33
854,27	1,74
854,44	-10,04
854,62	-9,93
854,79	-5,22
854,96	-12,70
855,13	-17,00
855,30	18,23
855,47	-12,19
855,64	2,46
855,81	-11,06
855,98	-13,31
856,15	16,90
856,32	18,64
856,49	-7,27
856,66	-13,31
856,83	10,24
857,00	5,43
857,17	-16,69
857,34	6,14
857,51	13,62
857,69	-11,57
857,86	9,83
858,03	-1,23
858,20	-2,66
858,37	10,04
858,54	3,38
858,71	-1,54
858,88	7,27
859,05	10,24
859,22	-4,30
859,39	-2,36
859,56	-7,07
859,73	-0,82
859,90	-17,20
860,07	-14,44
860,24	3,99
860,41	-14,13
860,58	7,48
860,75	-4,20
860,92	17,00
861,09	-1,54
861,26	-4,51
861,43	4,10
861,60	-2,15
861,77	21,40
861,94	8,29
862,11	13,72
862,28	1,33
862,45	4,61
862,62	-6,25
862,79	-1,84
862,96	-0,82
863,13	-0,20
863,30	-1,95
863,47	2,15
863,64	-12,08
863,81	-14,54
863,98	-13,82
864,15	3,38
864,32	0,10
864,48	0,00
864,65	-3,17
864,82	5,94
864,99	-10,85
865,16	2,36
865,33	15,97
865,50	12,29
865,67	5,02
865,84	7,58
866,01	2,46
866,18	14,34
866,35	21,71
866,52	19,97
866,69	7,07
866,86	-2,66
867,03	-2,66
867,20	-8,60
867,37	-17,10
867,53	5,63
867,70	-0,20
867,87	-2,87
868,04	22,94
868,21	15,87
868,38	-43,52
868,55	0,51
868,72	-11,47
868,89	6,25
869,06	6,45
869,23	-10,44
869,40	15,56
869,56	-10,96
869,73	27,55
869,90	2,66
870,07	3,69
870,24	-3,38
870,41	-8,40
870,58	-3,07
870,75	8,40
870,92	-12,29
871,08	-7,37
871,25	-14,85
871,42	6,45
871,59	4,40
871,76	4,81
871,93	-6,14
872,10	-15,56
872,27	-0,41
872,43	-7,17
872,60	-3,28
872,77	-14,44
872,94	-27,14
873,11	15,46
873,28	4,81
873,45	24,37
873,62	22,83
873,78	10,96
873,95	9,52
874,12	11,78
874,29	18,12
874,46	11,16
874,63	-14,64
874,79	5,63
874,96	-14,75
875,13	-7,48
875,30	-2,56
875,47	9,32
875,64	-5,22
875,80	20,07
875,97	24,47
876,14	-0,61
876,31	-9,42
876,48	-25,50
876,65	-18,12
876,81	-3,17
876,98	-6,04
877,15	-1,64
877,32	-13,72
877,49	-7,37
877,65	-7,17
877,82	4,71
877,99	6,55
878,16	-4,40
878,33	-8,09
878,49	-9,42
878,66	1,23
878,83	9,52
879,00	4,51
879,17	-4,20
879,33	7,48
879,50	-3,79
879,67	16,18
879,84	3,07
880,01	-9,93
880,17	13,21
880,34	-5,84
880,51	-6,76
880,68	2,76
880,84	-13,93
881,01	2,05
881,18	9,83
881,35	-19,15
881,52	-17,31
881,68	-8,09
881,85	13,62
882,02	0,41
882,19	-13,41
882,35	20,89
882,52	-3,38
882,69	5,22
882,86	16,49
883,02	-10,55
883,19	-12,39
883,36	6,04
883,53	5,43
883,69	-3,17
883,86	-0,82
884,03	-15,46
884,19	-0,82
884,36	9,93
884,53	-6,66
884,70	-7,27
884,86	-11,47
885,03	-28,36
885,20	-5,94
885,37	17,10
885,53	-19,66
885,70	7,58
885,87	-6,45
886,03	7,99
886,20	-7,27
886,37	6,14
886,54	4,30
886,70	-2,76
886,87	12,49
887,04	-15,67
887,20	3,48
887,37	5,22
887,54	-8,29
887,70	6,14
887,87	3,07
888,04	6,04
888,20	-2,97
888,37	-22,63
888,54	0,72
888,71	-3,38
888,87	13,00
889,04	-5,22
889,21	-0,10
889,37	21,09
889,54	-5,73
889,71	-2,36
889,87	-1,64
890,04	-7,27
890,21	-7,27
890,37	-7,27
890,54	-7,27
890,71	-7,27
890,87	-7,27
>>>>>End Processed Spectral Data<<<<<
